File: Dataset/AANDCNet/cell1/cycle_28/Test1572.csv
Test:,1572,,,,,,,
Start Time:,8/9/2021 9:38 PM,,,,,,,
End Time:,8/10/2021 10:02 PM,,,,,,,
Test,Rack,Shelf,Position,Voltage (V),Current (A),Discharge Capacity (mAh),TC_1 (C),
1572,SBT4050,1,4,2.751037,0,0,20,
1572,SBT4050,1,4,3.70525,3.9998,0,21.9,
1572,SBT4050,1,4,3.84553,4.0001,0,22.2,
1572,SBT4050,1,4,4.01127,3.9998,0,22.5,
1572,SBT4050,1,4,4.19849,3.9997,0,22.8,
1572,SBT4050,1,4,4.2002,1.5051,0,21.4,
1572,SBT4050,1,4,4.19996,0.7849,0,20.7,
1572,SBT4050,1,4,4.19991,0.46809,0,20.4,
1572,SBT4050,1,4,4.20004,0.30678,0,20.3,
1572,SBT4050,1,4,4.199786,0.21393,0,20.2,
1572,SBT4050,1,4,4.20002,0.15924,0,20.2,
1572,SBT4050,1,4,4.20025,0.12349,0,20.2,
1572,SBT4050,1,4,4.19609,0,0,20.2,
1572,SBT4050,1,4,4.18244,0,0,20.3,
1572,SBT4050,1,4,4.17537,0,0,20.3,
1572,SBT4050,1,4,4.17006,0,0,20.3,
1572,SBT4050,1,4,4.16607,0,0,20.3,
1572,SBT4050,1,4,4.162362,0,0,20.2,
1572,SBT4050,1,4,4.15989,0,0,20.3,
1572,SBT4050,1,4,4.157578,0,0,20.3,
1572,SBT4050,1,4,4.1551,0,0,20.3,
1572,SBT4050,1,4,4.15361,0,0,20.3,
1572,SBT4050,1,4,3.34836,-9.998,941.665,27.6,
1572,SBT4050,1,4,2.7164,-10,2033.28,31.3,
1572,SBT4050,1,4,3.18014,0,2121.39,21.6,
1572,SBT4050,1,4,3.19215,0,2121.39,20.4,
1572,SBT4050,1,4,3.69647,4.0001,2121.39,21.5,
1572,SBT4050,1,4,3.83245,4.0004,2121.39,22,
1572,SBT4050,1,4,4.00425,4,2121.39,22.4,
1572,SBT4050,1,4,4.20051,3.913,2121.39,22.8,
1572,SBT4050,1,4,4.20004,1.4346,2121.39,21.4,
1572,SBT4050,1,4,4.200066,0.7397,2121.39,20.6,
1572,SBT4050,1,4,4.19985,0.43806,2121.39,20.4,
1572,SBT4050,1,4,4.200114,0.284,2121.39,20.2,
1572,SBT4050,1,4,4.19985,0.20035,2121.39,20.2,
1572,SBT4050,1,4,4.20009,0.1485,2121.39,20.2,
1572,SBT4050,1,4,4.20009,0.11489,2121.39,20.2,
1572,SBT4050,1,4,4.18945,0,2121.39,20.2,
1572,SBT4050,1,4,4.17972,0,2121.39,20.2,
1572,SBT4050,1,4,4.17355,0,2121.39,20.3,
1572,SBT4050,1,4,4.16847,0,2121.39,20.3,
1572,SBT4050,1,4,4.16476,0,2121.39,20.2,
1572,SBT4050,1,4,4.16182,0,2121.39,20.2,
1572,SBT4050,1,4,4.15897,0,2121.39,20.3,
1572,SBT4050,1,4,4.15713,0,2121.39,20.3,
1572,SBT4050,1,4,4.154784,0,2121.39,20.3,
1572,SBT4050,1,4,3.41624,-14.999,2445.194,25.3,
1572,SBT4050,1,4,2.79079,-15.001,4082.627,36.7,
1572,SBT4050,1,4,3.206774,0,4230.758,22.5,
1572,SBT4050,1,4,3.21693,0,4230.758,20.5,
1572,SBT4050,1,4,3.699476,4.0004,4230.758,21.6,
1572,SBT4050,1,4,3.83588,3.9998,4230.758,22.2,
1572,SBT4050,1,4,4.008208,3.9994,4230.758,22.5,
1572,SBT4050,1,4,4.20006,3.8153,4230.758,22.8,
1572,SBT4050,1,4,4.19996,1.4127,4230.758,21.4,
1572,SBT4050,1,4,4.200188,0.7303,4230.758,20.7,
1572,SBT4050,1,4,4.200188,0.43431,4230.758,20.5,
1572,SBT4050,1,4,4.200152,0.28423,4230.758,20.4,
1572,SBT4050,1,4,4.200164,0.20062,4230.758,20.4,
1572,SBT4050,1,4,4.19991,0.14936,4230.758,20.3,
1572,SBT4050,1,4,4.19997,0.11373,4230.758,20.3,
1572,SBT4050,1,4,4.18949,0,4230.758,20.3,
1572,SBT4050,1,4,4.17973,0,4230.758,20.2,
1572,SBT4050,1,4,4.17318,0,4230.758,20.2,
1572,SBT4050,1,4,4.16873,0,4230.758,20.2,
1572,SBT4050,1,4,4.16483,0,4230.758,20.2,
1572,SBT4050,1,4,4.1618,0,4230.758,20.2,
1572,SBT4050,1,4,4.15911,0,4230.758,20.3,
1572,SBT4050,1,4,4.1568,0,4230.758,20.3,
1572,SBT4050,1,4,4.15469,0,4230.758,20.3,
1572,SBT4050,1,4,3.49931,-12.498,4519.769,24.3,
1572,SBT4050,1,4,3.04462,-12.498,5884.305,32,
1572,SBT4050,1,4,3.18828,0,6340.334,23.7,
1572,SBT4050,1,4,3.20371,0,6340.334,20.7,
1572,SBT4050,1,4,3.65798,3.9998,6340.334,21.2,
1572,SBT4050,1,4,3.79974,3.9994,6340.334,22,
1572,SBT4050,1,4,3.96219,4.0003,6340.334,22.5,
1572,SBT4050,1,4,4.15159,3.9998,6340.334,22.8,
1572,SBT4050,1,4,4.19997,1.7188,6340.334,21.8,
1572,SBT4050,1,4,4.20033,0.8408,6340.334,20.9,
1572,SBT4050,1,4,4.199924,0.4878,6340.334,20.5,
1572,SBT4050,1,4,4.2,0.3124,6340.334,20.4,
1572,SBT4050,1,4,4.20002,0.21687,6340.334,20.4,
1572,SBT4050,1,4,4.19988,0.15859,6340.334,20.4,
1572,SBT4050,1,4,4.20015,0.12154,6340.334,20.4,
1572,SBT4050,1,4,4.19229,0,6340.334,20.3,
1572,SBT4050,1,4,4.18133,0,6340.334,20.4,
1572,SBT4050,1,4,4.1743,0,6340.334,20.4,
1572,SBT4050,1,4,4.16914,0,6340.334,20.4,
1572,SBT4050,1,4,4.165044,0,6340.334,20.4,
1572,SBT4050,1,4,4.162,0,6340.334,20.4,
1572,SBT4050,1,4,4.15949,0,6340.334,20.4,
1572,SBT4050,1,4,4.1569,0,6340.334,20.3,
1572,SBT4050,1,4,4.155094,0,6340.334,20.4,
1572,SBT4050,1,4,3.86978,-7.499,6356.444,20.3,
1572,SBT4050,1,4,3.44137,-7.499,7175.137,25.1,
1572,SBT4050,1,4,3.12889,-7.501,7993.832,26.1,
1572,SBT4050,1,4,3.14744,0,8455.36,23.8,
1572,SBT4050,1,4,3.696332,3.9998,8455.36,21.9,
1572,SBT4050,1,4,3.83738,3.9997,8455.36,22.1,
1572,SBT4050,1,4,4.0121,4.0003,8455.36,22.5,
1572,SBT4050,1,4,4.20004,3.6262,8455.36,22.7,
1572,SBT4050,1,4,4.20022,1.3676,8455.36,21.4,
1572,SBT4050,1,4,4.20003,0.7103,8455.36,20.7,
1572,SBT4050,1,4,4.20011,0.42389,8455.36,20.5,
1572,SBT4050,1,4,4.20018,0.27797,8455.36,20.4,
1572,SBT4050,1,4,4.19988,0.19701,8455.36,20.5,
1572,SBT4050,1,4,4.20001,0.14481,8455.36,20.4,
1572,SBT4050,1,4,4.2001,0.11411,8455.36,20.5,
1572,SBT4050,1,4,4.18858,0,8455.36,20.4,
1572,SBT4050,1,4,4.17911,0,8455.36,20.4,
1572,SBT4050,1,4,4.173146,0,8455.36,20.5,
1572,SBT4050,1,4,4.168176,0,8455.36,20.4,
1572,SBT4050,1,4,4.16466,0,8455.36,20.3,
1572,SBT4050,1,4,4.16159,0,8455.36,20.3,
1572,SBT4050,1,4,4.15871,0,8455.36,20.3,
1572,SBT4050,1,4,4.157,0,8455.36,20.4,
1572,SBT4050,1,4,4.15466,0,8455.36,20.4,
1572,SBT4050,1,4,3.81083,-5,8593.926,21.3,
1572,SBT4050,1,4,3.5734,-4.999,9139.706,23.1,
1572,SBT4050,1,4,3.39197,-5,9685.483,23.3,
1572,SBT4050,1,4,3.13205,-4.999,10231.261,24.2,
1572,SBT4050,1,4,3.10309,0,10582.795,23.5,
1572,SBT4050,1,4,3.67876,4.0001,10582.795,21.9,
1572,SBT4050,1,4,3.82279,3.9994,10582.795,21.9,
1572,SBT4050,1,4,3.995508,4,10582.795,22.1,
1572,SBT4050,1,4,4.19597,4.0001,10582.795,22,
1572,SBT4050,1,4,4.20025,1.4523,10582.795,20.4,
1572,SBT4050,1,4,4.19992,0.7492,10582.795,19.6,
1572,SBT4050,1,4,4.200158,0.45169,10582.795,19.3,
1572,SBT4050,1,4,4.200158,0.30065,10582.795,19.5,
1572,SBT4050,1,4,4.2,0.21146,10582.795,19.5,
1572,SBT4050,1,4,4.200158,0.15886,10582.795,19.6,
1572,SBT4050,1,4,4.19994,0.12163,10582.795,19.5,
1572,SBT4050,1,4,4.19545,0,10582.795,19.6,
1572,SBT4050,1,4,4.18198,0,10582.795,19.6,
1572,SBT4050,1,4,4.17521,0,10582.795,19.6,
1572,SBT4050,1,4,4.1696,0,10582.795,19.6,
1572,SBT4050,1,4,4.16564,0,10582.795,19.6,
1572,SBT4050,1,4,4.16236,0,10582.795,19.6,
1572,SBT4050,1,4,4.15945,0,10582.795,19.6,
1572,SBT4050,1,4,4.15708,0,10582.795,19.5,
1572,SBT4050,1,4,4.155078,0,10582.795,19.5,
1572,SBT4050,1,4,4.15308,0,10582.795,19.5,
1572,SBT4050,1,4,3.849578,-2.4999,10821.577,20.2,
1572,SBT4050,1,4,3.7341,-2.5001,11094.489,20.4,
1572,SBT4050,1,4,3.63309,-2.4998,11367.4,20.6,
1572,SBT4050,1,4,3.54085,-2.5,11640.31,20.3,
1572,SBT4050,1,4,3.46166,-2.4999,11913.221,20.4,
1572,SBT4050,1,4,3.36359,-2.4996,12186.132,20.7,
1572,SBT4050,1,4,3.158767,-2.4998,12459.043,21.1,
1572,SBT4050,1,4,2.84151,0,12727.101,22.8,
1572,SBT4050,1,4,3.60999,3.9996,12727.101,20.7,
1572,SBT4050,1,4,3.77676,3.9997,12727.101,21.6,
1572,SBT4050,1,4,3.927,4.0003,12727.101,22,
1572,SBT4050,1,4,4.11037,4,12727.101,22.3,
1572,SBT4050,1,4,4.20002,2.0578,12727.101,21.8,
1572,SBT4050,1,4,4.200212,0.9633,12727.101,20.5,
1572,SBT4050,1,4,4.19984,0.545,12727.101,20,
1572,SBT4050,1,4,4.20001,0.34245,12727.101,19.9,
1572,SBT4050,1,4,4.20019,0.23516,12727.101,19.8,
1572,SBT4050,1,4,4.2002,0.17116,12727.101,19.7,
1572,SBT4050,1,4,4.2002,0.13075,12727.101,19.8,
1572,SBT4050,1,4,4.20002,0.10382,12727.101,19.7,
1572,SBT4050,1,4,4.18387,0,12727.101,19.7,
1572,SBT4050,1,4,4.17596,0,12727.101,19.6,
1572,SBT4050,1,4,4.1704,0,12727.101,19.8,
1572,SBT4050,1,4,4.16632,0,12727.101,19.9,
1572,SBT4050,1,4,4.1624,0,12727.101,19.8,
1572,SBT4050,1,4,4.15954,0,12727.101,19.9,
1572,SBT4050,1,4,4.15696,0,12727.101,19.8,
1572,SBT4050,1,4,4.15471,0,12727.101,19.5,
1572,SBT4050,1,4,4.15292,0,12727.101,19.5,
1572,SBT4050,1,4,3.70685,-5.945,13052.506,22.2,
1572,SBT4050,1,4,3.60954,-5.399,13391.93,21.4,
1572,SBT4050,1,4,3.3732,-10.346,13830.34,21.7,
1572,SBT4050,1,4,3.22835,-9.073,14203.613,21.4,
1572,SBT4050,1,4,3.476826,0.18699,14581.421,22.8,
1572,SBT4050,1,4,3.128204,-6.161,14828.872,21.8,
1572,SBT4050,1,4,3.54575,2.3346,14977.087,21.3,
1572,SBT4050,1,4,3.47203,-0.045,14999.364,20.3,
1572,SBT4050,1,4,3.47169,-0.033,15003.52,20.2,
1572,SBT4050,1,4,3.6589,3.9995,15004.181,20.2,
1572,SBT4050,1,4,3.840274,4.0005,15004.181,21.5,
1572,SBT4050,1,4,4.02632,4.0001,15004.181,22.2,
1572,SBT4050,1,4,4.20036,3.1969,15004.181,22.5,
1572,SBT4050,1,4,4.20006,1.2536,15004.181,21,
1572,SBT4050,1,4,4.20025,0.6684,15004.181,20.5,
1572,SBT4050,1,4,4.200182,0.40867,15004.181,20.3,
1572,SBT4050,1,4,4.199896,0.27184,15004.181,20.2,
1572,SBT4050,1,4,4.200158,0.19324,15004.181,20.2,
1572,SBT4050,1,4,4.200182,0.14578,15004.181,20.2,
1572,SBT4050,1,4,4.20003,0.11312,15004.181,20.3,
1572,SBT4050,1,4,4.18813,0,15004.181,20.3,
1572,SBT4050,1,4,4.17813,0,15004.181,20.4,
1572,SBT4050,1,4,4.17223,0,15004.181,20.5,
1572,SBT4050,1,4,4.167286,0,15004.181,20.5,
1572,SBT4050,1,4,4.163582,0,15004.181,20.6,
1572,SBT4050,1,4,4.16012,0,15004.181,20.7,
1572,SBT4050,1,4,4.15732,0,15004.181,20.8,
1572,SBT4050,1,4,4.15496,0,15004.181,20.9,
1572,SBT4050,1,4,4.15329,0,15004.181,20.9,
1572,SBT4050,1,4,4.13779,4,15129.315,22.4,
1572,SBT4050,1,4,3.63487,-8.172,15584.354,23.4,
1572,SBT4050,1,4,3.564664,-4.878,15961.741,23,
1572,SBT4050,1,4,3.56198,-4.982,16129.164,22.4,
1572,SBT4050,1,4,3.90746,4,16227.189,21.4,
1572,SBT4050,1,4,3.3631,-7.334,16617.42,22.8,
1572,SBT4050,1,4,3.4383,-1.714,17039.553,23.6,
1572,SBT4050,1,4,3.62812,3.9997,17282.257,22,
1572,SBT4050,1,4,3.45052,-0.44799,17479.595,22.3,
1572,SBT4050,1,4,3.46721,0,17590.229,22.1,
1572,SBT4050,1,4,3.73898,4,17590.229,21.9,
1572,SBT4050,1,4,3.89684,3.9999,17590.229,22.8,
1572,SBT4050,1,4,4.09191,4,17590.229,23.3,
1572,SBT4050,1,4,4.200032,2.188,17590.229,22.9,
1572,SBT4050,1,4,4.200318,0.9853,17590.229,21.7,
1572,SBT4050,1,4,4.19995,0.5561,17590.229,21.3,
1572,SBT4050,1,4,4.19997,0.34958,17590.229,21.3,
1572,SBT4050,1,4,4.19979,0.23891,17590.229,21.2,
1572,SBT4050,1,4,4.20013,0.17462,17590.229,21.2,
1572,SBT4050,1,4,4.19989,0.13226,17590.229,21.1,
1572,SBT4050,1,4,4.199734,0.10522,17590.229,21.2,
1572,SBT4050,1,4,4.18278,0,17590.229,21.2,
1572,SBT4050,1,4,4.17851,0,17590.229,,