File: Dataset/AANDCNet/cell1/cycle_28/Test1579.csv
Test:,1579,,,,,,,
Start Time:,8/11/2021 3:41 PM,,,,,,,
End Time:,8/11/2021 8:52 PM,,,,,,,
Test,Rack,Shelf,Position,Voltage (V),Current (A),Discharge Capacity (mAh),TC_1 (C),
1579,SBT4050,1,4,4.12041,0,0,19.4,
1579,SBT4050,1,4,4.20099,1.282,0,19.5,
1579,SBT4050,1,4,4.20051,0.5969,0,19.5,
1579,SBT4050,1,4,4.200398,0.38144,0,19.5,
1579,SBT4050,1,4,4.19989,0.27484,0,19.5,
1579,SBT4050,1,4,4.19996,0.20764,0,19.5,
1579,SBT4050,1,4,4.20016,0.16719,0,19.5,
1579,SBT4050,1,4,4.20002,0.1371,0,19.5,
1579,SBT4050,1,4,4.20023,0.11679,0,19.5,
1579,SBT4050,1,4,4.19994,0.10229,0,19.6,
1579,SBT4050,1,4,4.19295,0,0,19.5,
1579,SBT4050,1,4,4.1903,0,0,19.5,
1579,SBT4050,1,4,4.18834,0,0,19.5,
1579,SBT4050,1,4,4.18686,0,0,19.6,
1579,SBT4050,1,4,4.18545,0,0,19.5,
1579,SBT4050,1,4,4.184206,0,0,19.5,
1579,SBT4050,1,4,4.18338,0,0,19.5,
1579,SBT4050,1,4,4.182308,0,0,19.5,
1579,SBT4050,1,4,4.18202,0,0,19.4,
1579,SBT4050,1,4,4.18106,0,0,19.4,
1579,SBT4050,1,4,4.180594,0,0,19.2,
1579,SBT4050,1,4,4.18001,0,0,19.3,
1579,SBT4050,1,4,4.179404,0,0,19.2,
1579,SBT4050,1,4,4.17887,0,0,19.2,
1579,SBT4050,1,4,4.17848,0,0,19.2,
1579,SBT4050,1,4,4.17789,0,0,19.1,
1579,SBT4050,1,4,4.17762,0,0,19.1,
1579,SBT4050,1,4,4.1772,0,0,19.2,
1579,SBT4050,1,4,4.17681,0,0,19.1,
1579,SBT4050,1,4,4.17671,0,0,19.1,
1579,SBT4050,1,4,4.176336,0,0,19,
1579,SBT4050,1,4,4.17624,0,0,19,
1579,SBT4050,1,4,4.17592,0,0,18.9,
1579,SBT4050,1,4,4.17571,0,0,18.9,
1579,SBT4050,1,4,4.175234,0,0,19,
1579,SBT4050,1,4,4.17497,0,0,19.1,
1579,SBT4050,1,4,4.17495,0,0,19.1,
1579,SBT4050,1,4,4.17492,0,0,19,
1579,SBT4050,1,4,4.174412,0,0,19.1,
1579,SBT4050,1,4,4.17406,0,0,19.1,
1579,SBT4050,1,4,4.17414,0,0,19.1,
1579,SBT4050,1,4,4.17397,0,0,19.2,
1579,SBT4050,1,4,4.17352,0,0,19.2,
1579,SBT4050,1,4,4.1733,0,0,19.3,
1579,SBT4050,1,4,4.1733,0,0,19.3,
1579,SBT4050,1,4,4.172934,0,0,19.3,
1579,SBT4050,1,4,4.17307,0,0,19.3,
1579,SBT4050,1,4,4.17281,0,0,19.4,
1579,SBT4050,1,4,4.17256,0,0,19.4,
1579,SBT4050,1,4,4.17223,0,0,19.5,
1579,SBT4050,1,4,4.17231,0,0,19.5,
1579,SBT4050,1,4,4.17219,0,0,19.4,
1579,SBT4050,1,4,4.171924,0,0,19.5,
1579,SBT4050,1,4,4.17178,0,0,19.5,
1579,SBT4050,1,4,4.17076,-0.13199,0.03,19.5,
1579,SBT4050,1,4,4.09618,0.07298,53.445,19.9,
1579,SBT4050,1,4,3.86817,-3.5877,147.37,20.8,
1579,SBT4050,1,4,3.72614,-7.712,203.965,20.9,
1579,SBT4050,1,4,3.69445,-8.331,280.784,21.3,
1579,SBT4050,1,4,3.57372,-8.982,436.205,22.4,
1579,SBT4050,1,4,3.66184,-5.186,547.885,22.9,
1579,SBT4050,1,4,3.58452,-9.695,583.035,22.1,
1579,SBT4050,1,4,3.73882,0.8319,706.828,22.3,
1579,SBT4050,1,4,3.78178,-0.054,750.504,22.1,
1579,SBT4050,1,4,3.74543,-0.5989,808.364,21.7,
1579,SBT4050,1,4,3.49897,-3.8461,1009.518,23.6,
1579,SBT4050,1,4,3.6585,-0.27696,1097.919,23.7,
1579,SBT4050,1,4,3.713322,3.6947,1179.162,23,
1579,SBT4050,1,4,3.63845,0.46408,1276.887,23.1,
1579,SBT4050,1,4,3.52237,-4.2285,1328.411,22.5,
1579,SBT4050,1,4,3.68981,4.0003,1445.66,22.8,
1579,SBT4050,1,4,3.3973,-6.057,1507.343,22.1,
1579,SBT4050,1,4,3.5788,0.36802,1535.816,21.4,
1579,SBT4050,1,4,3.63857,3.9998,1613.315,21.6,
1579,SBT4050,1,4,3.53451,-0.035988,1698.641,22.3,
1579,SBT4050,1,4,3.51872,-0.07599,1759.581,22.1,
1579,SBT4050,1,4,3.44688,0.08698,1859.495,22.8,
1579,SBT4050,1,4,3.35897,-4.8153,1909.755,22.4,
1579,SBT4050,1,4,3.46329,-2.6779,1933.974,21.8,
1579,SBT4050,1,4,3.467,-1.3789,1992.861,21.9,
1579,SBT4050,1,4,3.5133,-2.1985,2018.331,21.5,
1579,SBT4050,1,4,3.633,3.334,2061.214,21.4,
1579,SBT4050,1,4,3.07314,-7.968,2128.332,21.2,
1579,SBT4050,1,4,3.64693,4.0004,2146.969,21.7,
1579,SBT4050,1,4,3.50809,-0.026997,2194.684,21.9,
1579,SBT4050,1,4,3.40777,-1.7032,2252.713,21.8,
1579,SBT4050,1,4,3.601726,2.856,2302.055,22,
1579,SBT4050,1,4,3.22261,-4.0378,2364.246,21.9,
1579,SBT4050,1,4,3.066317,-8.384,2413.594,21.7,
1579,SBT4050,1,4,3.48261,-0.022002,2426.862,21.4,
1579,SBT4050,1,4,3.48062,-0.024,2427.219,20.9,
1579,SBT4050,1,4,3.48162,-0.013001,2427.61,20.5,
1579,SBT4050,1,4,3.48217,-0.015999,2427.94,20.3,
1579,SBT4050,1,4,3.48373,0,2428.125,20.1,
1579,SBT4050,1,4,3.48467,0,2428.125,20.1,
1579,SBT4050,1,4,3.4852,0,2428.125,20,
1579,SBT4050,1,4,3.486,0,2428.125,20,
1579,SBT4050,1,4,3.68998,4,2428.125,20.3,
1579,SBT4050,1,4,3.74537,4.0001,2428.125,20.6,
1579,SBT4050,1,4,3.77874,3.9998,2428.125,21,
1579,SBT4050,1,4,3.8042,4.0001,2428.125,21.2,
1579,SBT4050,1,4,3.835514,4.0004,2428.125,21.4,
1579,SBT4050,1,4,3.87014,4.0001,2428.125,21.6,
1579,SBT4050,1,4,3.906498,4,2428.125,21.7,
1579,SBT4050,1,4,3.94601,3.9998,2428.125,21.9,
1579,SBT4050,1,4,3.98711,4,2428.125,22,
1579,SBT4050,1,4,4.02855,4,2428.125,22.1,
1579,SBT4050,1,4,4.069652,4,2428.125,22.1,
1579,SBT4050,1,4,4.11124,4.0002,2428.125,22.2,
1579,SBT4050,1,4,4.1561,4.0003,2428.125,22.3,
1579,SBT4050,1,4,4.20009,3.8733,2428.125,22.4,
1579,SBT4050,1,4,4.20021,2.9492,2428.125,22.3,
1579,SBT4050,1,4,4.20017,2.3278,2428.125,21.9,
1579,SBT4050,1,4,4.20017,1.8919,2428.125,21.6,
1579,SBT4050,1,4,4.20003,1.5768,2428.125,21.2,
1579,SBT4050,1,4,4.200102,1.3337,2428.125,21,
1579,SBT4050,1,4,4.19985,1.1439,2428.125,20.8,
1579,SBT4050,1,4,4.20022,0.9894,2428.125,20.6,
1579,SBT4050,1,4,4.20028,0.8677,2428.125,20.5,
1579,SBT4050,1,4,4.20019,0.7645,2428.125,20.4,
1579,SBT4050,1,4,4.19996,0.6769,2428.125,20.3,
1579,SBT4050,1,4,4.19991,0.6027,2428.125,20.3,
1579,SBT4050,1,4,4.20022,0.5417,2428.125,20.2,
1579,SBT4050,1,4,4.20009,0.4888,2428.125,20.2,
1579,SBT4050,1,4,4.20022,0.44181,2428.125,20.2,
1579,SBT4050,1,4,4.20008,0.40196,2428.125,20.2,
1579,SBT4050,1,4,4.20004,0.36648,2428.125,20.1,
1579,SBT4050,1,4,4.20026,0.33567,2428.125,20.1,
1579,SBT4050,1,4,4.19986,0.30747,2428.125,20.1,
1579,SBT4050,1,4,4.19997,0.28605,2428.125,20.1,
1579,SBT4050,1,4,4.20019,0.26265,2428.125,20.1,
1579,SBT4050,1,4,4.200126,0.24191,2428.125,20.1,
1579,SBT4050,1,4,4.19996,0.22554,2428.125,20,
1579,SBT4050,1,4,4.20022,0.21086,2428.125,20,
1579,SBT4050,1,4,4.20003,0.19683,2428.125,20,
1579,SBT4050,1,4,4.20001,0.18518,2428.125,20,
1579,SBT4050,1,4,4.20026,0.17347,2428.125,20,
1579,SBT4050,1,4,4.20005,0.16236,2428.125,20,
1579,SBT4050,1,4,4.200114,0.15342,2428.125,20,
1579,SBT4050,1,4,4.19989,0.14483,2428.125,20,
1579,SBT4050,1,4,4.19994,0.13745,2428.125,20,
1579,SBT4050,1,4,4.20004,0.13015,2428.125,20,
1579,SBT4050,1,4,4.20007,0.12276,2428.125,20,
1579,SBT4050,1,4,4.20008,0.11796,2428.125,20,
1579,SBT4050,1,4,4.1999,0.11085,2428.125,20,
1579,SBT4050,1,4,4.20016,0.10723,2428.125,20,
1579,SBT4050,1,4,4.19994,0.10098,2428.125,20,
1579,SBT4050,1,4,4.19316,0,2428.125,19.9,
1579,SBT4050,1,4,4.18981,0,2428.125,19.9,
1579,SBT4050,1,4,4.187236,0,2428.125,19.9,
1579,SBT4050,1,4,4.18489,0,2428.125,19.9,
1579,SBT4050,1,4,4.18297,0,2428.125,19.9,
1579,SBT4050,1,4,4.18102,0,2428.125,19.9,
1579,SBT4050,1,4,4.17986,0,2428.125,19.9,
1579,SBT4050,1,4,4.17794,0,2428.125,19.9,
1579,SBT4050,1,4,4.17654,0,2428.125,19.9,
1579,SBT4050,1,4,4.17549,0,2428.125,19.9,
1579,SBT4050,1,4,4.17399,0,2428.125,20,
1579,SBT4050,1,4,4.17284,0,2428.125,19.9,
1579,SBT4050,1,4,4.17204,0,2428.125,19.9,
1579,SBT4050,1,4,4.17093,0,2428.125,19.9,
1579,SBT4050,1,4,4.16965,0,2428.125,19.9,
1579,SBT4050,1,4,4.16921,0,2428.125,19.9,
1579,SBT4050,1,4,4.167978,0,2428.125,19.9,
1579,SBT4050,1,4,4.16721,0,2428.125,19.9,
1579,SBT4050,1,4,4.166288,0,2428.125,19.9,
1579,SBT4050,1,4,4.165806,0,2428.125,19.9,
1579,SBT4050,1,4,4.16503,0,2428.125,19.9,
1579,SBT4050,1,4,4.164238,0,2428.125,19.9,
1579,SBT4050,1,4,4.163554,0,2428.125,19.9,
1579,SBT4050,1,4,4.16302,0,2428.125,19.9,
1579,SBT4050,1,4,4.16221,0,2428.125,19.9,
1579,SBT4050,1,4,4.16164,0,2428.125,19.9,
1579,SBT4050,1,4,4.16078,0,2428.125,20,
1579,SBT4050,1,4,4.16056,0,2428.125,20,
1579,SBT4050,1,4,4.15991,0,2428.125,20,
1579,SBT4050,1,4,4.15956,0,2428.125,20,
1579,SBT4050,1,4,4.15897,0,2428.125,20,
1579,SBT4050,1,4,4.15841,0,2428.125,20,
1579,SBT4050,1,4,4.158162,0,2428.125,20,
1579,SBT4050,1,4,4.15758,0,2428.125,19.9,
1579,SBT4050,1,4,4.15675,0,2428.125,20,
1579,SBT4050,1,4,4.15633,0,2428.125,20,
1579,SBT4050,1,4,4.15614,0,2428.125,20,
1579,SBT4050,1,4,4.15595,0,2428.125,20,
1579,SBT4050,1,4,4.15524,0,2428.125,20,
1579,SBT4050,1,4,4.15474,0,2428.125,20,
1579,SBT4050,1,4,4.15482,0,2428.125,20,
1579,SBT4050,1,4,4.15427,0,2428.125,20,
1579,SBT4050,1,4,4.153742,0,2428.125,20,
1579,SBT4050,1,4,4.15354,0,2428.125,20,
1579,SBT4050,1,4,4.16154,0.21101,2428.134,20,
1579,SBT4050,1,4,3.74926,-9.603,2497.82,20.4,
1579,SBT4050,1,4,3.996256,0.22496,2600.666,21.5,
1579,SBT4050,1,4,4.09461,4.0001,2658.987,21.8,
1579,SBT4050,1,4,3.97716,3.9996,2774.459,22.6,
1579,SBT4050,1,4,3.84717,-0.22304,2845.666,22.5,
1579,SBT4050,1,4,3.75258,-2.7672,2922.145,22.1,
1579,SBT4050,1,4,3.692132,-4.3138,2980.243,21.8,
1579,SBT4050,1,4,3.78073,-0.301,3026.637,21.4,
1579,SBT4050,1,4,3.55472,-5.772,3148.976,22,
1579,SBT4050,1,4,3.47702,-8.351,3222.367,22.2,
1579,SBT4050,1,4,3.42689,-9.904,3302.393,22.5,
1579,SBT4050,1,4,3.54882,-4.3473,3392.416,22.7,
1579,SBT4050,1,4,3.52103,-5.172,3479.301,22.7,
1579,SBT4050,1,4,3.526848,-5.526,3526.3,22,
1579,SBT4050,1,4,3.667782,-0.029001,3577.589,21.7,
1579,SBT4050,1,4,3.516614,-1.6681,3687.627,21.9,
1579,SBT4050,1,4,3.62416,-0.083,3765.271,22.3,
1579,SBT4050,1,4,3.61525,-0.067,3828.234,22.3,
1579,SBT4050,1,4,3.57922,-0.05099,3945.601,23.1,
1579,SBT4050,1,4,3.45122,-5.066,4019.519,22.6,
1579,SBT4050,1,4,3.59658,2.1767,4105.466,22.4,
1579,SBT4050,1,4,3.50977,-0.07999,4166.55,22.1,
1579,SBT4050,1,4,3.267,-5.409,4227.329,21.9,
1579,SBT4050,1,4,3.16574,-8.048,4343.337,23.2,
1579,SBT4050,1,4,3.47731,-0.496,4404.215,23.3,
1579,SBT4050,1,4,3.298895,-1.6359,4497.225,23.7,
1579,SBT4050,1,4,3.34917,-0.30297,4554.374,23.3,
1579,SBT4050,1,4,3.59407,3.9992,4579.709,22.5,
1579,SBT4050,1,4,3.24431,-3.6818,4609.727,21.7,
1579,SBT4050,1,4,3.44106,-0.034996,4634.993,21.4,
1579,SBT4050,1,4,3.45047,-0.033998,4635.741,20.9,
1579,SBT4050,1,4,3.45367,-0.038007,4636.493,20.6,
1579,SBT4050,1,4,3.45656,-0.028998,4637.151,20.3,
1579,SBT4050,1,4,3.457672,-0.027998,4637.755,20.2,
1579,SBT4050,1,4,3.4594,-0.024002,4638.325,20.1,
1579,SBT4050,1,4,3.461832,0,4638.627,20.1,
1579,SBT4050,1,4,3.46353,0,4638.627,20,
1579,SBT4050,1,4,3.46473,0,4638.627,20.1,
1579,SBT4050,1,4,3.465474,0,4638.627,20,
1579,SBT4050,1,4,3.46579,-0.000109,4638.627,,