File: Dataset/AANDCNet/cell1/cycle_04/Test1509.csv
Test:,1509,,,,,,,
Start Time:,6/27/2021 1:14 PM,,,,,,,
End Time:,6/28/2021 1:15 PM,,,,,,,
Test,Rack,Shelf,Position,Voltage (V),Current (A),Discharge Capacity (mAh),TC_1 (C),
1509,SBT4050,1,4,3.75989,0,0,20.8,
1509,SBT4050,1,4,4.07209,3.9997,0,21.8,
1509,SBT4050,1,4,4.20015,2.5523,0,22,
1509,SBT4050,1,4,4.2,1.1235,0,21,
1509,SBT4050,1,4,4.2,0.46431,0,20.6,
1509,SBT4050,1,4,4.20016,0.22048,0,20.4,
1509,SBT4050,1,4,4.20018,0.11654,0,20.4,
1509,SBT4050,1,4,4.18951,0,0,20.4,
1509,SBT4050,1,4,4.184468,0,0,20.4,
1509,SBT4050,1,4,4.18187,0,0,20.4,
1509,SBT4050,1,4,4.179992,0,0,20.4,
1509,SBT4050,1,4,4.178474,0,0,20.4,
1509,SBT4050,1,4,4.1771,0,0,20.4,
1509,SBT4050,1,4,4.176,0,0,20.4,
1509,SBT4050,1,4,4.17551,0,0,20.4,
1509,SBT4050,1,4,4.1748,0,0,20.4,
1509,SBT4050,1,4,3.4527,-14.999,691.28,28,
1509,SBT4050,1,4,2.617996,-14.999,2312.062,34.7,
1509,SBT4050,1,4,3.13088,0,2348.161,21.9,
1509,SBT4050,1,4,3.14062,0,2348.161,20.4,
1509,SBT4050,1,4,3.646144,3.9997,2348.161,21.5,
1509,SBT4050,1,4,3.76979,3.9999,2348.161,21.7,
1509,SBT4050,1,4,3.88917,3.9996,2348.161,22,
1509,SBT4050,1,4,4.056932,3.9998,2348.161,22.2,
1509,SBT4050,1,4,4.20012,2.7537,2348.161,22,
1509,SBT4050,1,4,4.20018,1.2284,2348.161,21.1,
1509,SBT4050,1,4,4.20026,0.5127,2348.161,20.6,
1509,SBT4050,1,4,4.20014,0.23654,2348.161,20.5,
1509,SBT4050,1,4,4.19993,0.12865,2348.161,20.4,
1509,SBT4050,1,4,4.19059,0,2348.161,20.3,
1509,SBT4050,1,4,4.18537,0,2348.161,20.3,
1509,SBT4050,1,4,4.18223,0,2348.161,20.3,
1509,SBT4050,1,4,4.18009,0,2348.161,20.3,
1509,SBT4050,1,4,4.17877,0,2348.161,20.3,
1509,SBT4050,1,4,4.1775,0,2348.161,20.4,
1509,SBT4050,1,4,4.17648,0,2348.161,20.4,
1509,SBT4050,1,4,4.17566,0,2348.161,20.3,
1509,SBT4050,1,4,4.17496,0,2348.161,20.3,
1509,SBT4050,1,4,3.60664,-12.498,2744.534,24.4,
1509,SBT4050,1,4,3.14693,-12.499,4095.18,29.7,
1509,SBT4050,1,4,3.113396,0,4695.673,24.1,
1509,SBT4050,1,4,3.12968,0,4695.673,20.7,
1509,SBT4050,1,4,3.566502,4,4695.673,20.6,
1509,SBT4050,1,4,3.72861,4.0006,4695.673,21.7,
1509,SBT4050,1,4,3.831422,4,4695.673,21.9,
1509,SBT4050,1,4,3.98639,3.9995,4695.673,22.1,
1509,SBT4050,1,4,4.17206,3.9997,4695.673,22.1,
1509,SBT4050,1,4,4.20005,1.7281,4695.673,21.3,
1509,SBT4050,1,4,4.20016,0.7376,4695.673,20.7,
1509,SBT4050,1,4,4.20005,0.32527,4695.673,20.4,
1509,SBT4050,1,4,4.20043,0.16652,4695.673,20.4,
1509,SBT4050,1,4,4.19515,0,4695.673,20.3,
1509,SBT4050,1,4,4.18692,0,4695.673,20.3,
1509,SBT4050,1,4,4.18324,0,4695.673,20.4,
1509,SBT4050,1,4,4.18032,0,4695.673,20.4,
1509,SBT4050,1,4,4.17823,0,4695.673,20.4,
1509,SBT4050,1,4,4.17699,0,4695.673,20.4,
1509,SBT4050,1,4,4.17665,0,4695.673,20.4,
1509,SBT4050,1,4,4.1754,0,4695.673,20.4,
1509,SBT4050,1,4,4.1747,0,4695.673,20.4,
1509,SBT4050,1,4,4.17401,0,4695.673,20.4,
1509,SBT4050,1,4,3.62648,-7.498,5390.038,23.5,
1509,SBT4050,1,4,3.34159,-7.499,6200.39,24.3,
1509,SBT4050,1,4,2.62924,-7.501,7010.738,26.4,
1509,SBT4050,1,4,3.528132,3.9998,7037.342,21.2,
1509,SBT4050,1,4,3.72154,4.0001,7037.342,21.7,
1509,SBT4050,1,4,3.826796,3.9998,7037.342,21.9,
1509,SBT4050,1,4,3.97955,3.9997,7037.342,22.2,
1509,SBT4050,1,4,4.163874,4.0004,7037.342,22.2,
1509,SBT4050,1,4,4.199984,1.7708,7037.342,21.4,
1509,SBT4050,1,4,4.2004,0.7591,7037.342,20.8,
1509,SBT4050,1,4,4.200258,0.33307,7037.342,20.5,
1509,SBT4050,1,4,4.19996,0.16733,7037.342,20.4,
1509,SBT4050,1,4,4.197836,0,7037.342,20.4,
1509,SBT4050,1,4,4.1877,0,7037.342,20.4,
1509,SBT4050,1,4,4.18406,0,7037.342,20.3,
1509,SBT4050,1,4,4.18128,0,7037.342,20.3,
1509,SBT4050,1,4,4.179452,0,7037.342,20.3,
1509,SBT4050,1,4,4.17831,0,7037.342,20.3,
1509,SBT4050,1,4,4.17681,0,7037.342,20.3,
1509,SBT4050,1,4,4.17611,0,7037.342,20.3,
1509,SBT4050,1,4,4.17553,0,7037.342,20.4,
1509,SBT4050,1,4,4.17473,0,7037.342,20.4,
1509,SBT4050,1,4,3.79993,-5,7443.348,21.8,
1509,SBT4050,1,4,3.60472,-4.999,7983.572,22.2,
1509,SBT4050,1,4,3.42139,-4.999,8523.792,22.3,
1509,SBT4050,1,4,3.21209,-5.001,9064.015,22.8,
1509,SBT4050,1,4,3.06702,0,9385.609,22.2,
1509,SBT4050,1,4,3.63251,4,9385.609,21.5,
1509,SBT4050,1,4,3.76387,4.0001,9385.609,21.7,
1509,SBT4050,1,4,3.88334,3.9998,9385.609,22.1,
1509,SBT4050,1,4,4.05155,4.0003,9385.609,22.2,
1509,SBT4050,1,4,4.20013,2.8268,9385.609,22.1,
1509,SBT4050,1,4,4.1999,1.2541,9385.609,21.1,
1509,SBT4050,1,4,4.20025,0.526,9385.609,20.7,
1509,SBT4050,1,4,4.199774,0.2443,9385.609,20.5,
1509,SBT4050,1,4,4.20021,0.13385,9385.609,20.4,
1509,SBT4050,1,4,4.19133,0,9385.609,20.4,
1509,SBT4050,1,4,4.185448,0,9385.609,20.3,
1509,SBT4050,1,4,4.18209,0,9385.609,20.3,
1509,SBT4050,1,4,4.17993,0,9385.609,20.3,
1509,SBT4050,1,4,4.17843,0,9385.609,20.3,
1509,SBT4050,1,4,4.17712,0,9385.609,20.4,
1509,SBT4050,1,4,4.17611,0,9385.609,20.4,
1509,SBT4050,1,4,4.1755,0,9385.609,20.4,
1509,SBT4050,1,4,4.17469,0,9385.609,20.4,
1509,SBT4050,1,4,4.03373,-2.4997,9441.194,20.4,
1509,SBT4050,1,4,3.918776,-2.5,9711.327,20.8,
1509,SBT4050,1,4,3.81286,-2.5001,9981.46,20.9,
1509,SBT4050,1,4,3.72217,-2.5001,10251.593,20.9,
1509,SBT4050,1,4,3.620648,-2.5003,10521.727,20.8,
1509,SBT4050,1,4,3.534348,-2.4998,10791.862,20.8,
1509,SBT4050,1,4,3.46054,-2.5,11061.995,21,
1509,SBT4050,1,4,3.36638,-2.5002,11332.129,21.1,
1509,SBT4050,1,4,3.09473,-2.4998,11602.263,21.5,
1509,SBT4050,1,4,2.97742,0,11756.173,21.2,
1509,SBT4050,1,4,3.62848,4.0002,11756.173,21.5,
1509,SBT4050,1,4,3.76079,4,11756.173,21.7,
1509,SBT4050,1,4,3.878532,4.0003,11756.173,22,
1509,SBT4050,1,4,4.0463,3.9996,11756.173,22.1,
1509,SBT4050,1,4,4.200316,2.9262,11756.173,22,
1509,SBT4050,1,4,4.1999,1.2902,11756.173,21,
1509,SBT4050,1,4,4.20017,0.5483,11756.173,20.5,
1509,SBT4050,1,4,4.19995,0.25728,11756.173,20.4,
1509,SBT4050,1,4,4.199994,0.13855,11756.173,20.3,
1509,SBT4050,1,4,4.191436,0,11756.173,20.3,
1509,SBT4050,1,4,4.18514,0,11756.173,20.3,
1509,SBT4050,1,4,4.181892,0,11756.173,20.4,
1509,SBT4050,1,4,4.17935,0,11756.173,20.4,
1509,SBT4050,1,4,4.17803,0,11756.173,20.3,
1509,SBT4050,1,4,4.1768,0,11756.173,20.3,
1509,SBT4050,1,4,4.17567,0,11756.173,20.3,
1509,SBT4050,1,4,4.17482,0,11756.173,20.2,
1509,SBT4050,1,4,4.174008,0,11756.173,20.2,
1509,SBT4050,1,4,3.88069,-9.358,11801.43,20.4,
1509,SBT4050,1,4,3.91833,-3.1841,12209.178,21.9,
1509,SBT4050,1,4,3.82651,0.5579,12604.554,21.9,
1509,SBT4050,1,4,3.58774,-3.0801,13026.609,21.8,
1509,SBT4050,1,4,3.50747,-0.16299,13438.198,22.6,
1509,SBT4050,1,4,3.525484,-0.027002,13730.369,21.9,
1509,SBT4050,1,4,3.58772,-0.058,13907.866,21.2,
1509,SBT4050,1,4,3.54554,-0.045996,14025.533,20.8,
1509,SBT4050,1,4,3.54358,-0.043007,14030.113,20.4,
1509,SBT4050,1,4,3.54407,0,14033.258,20.4,
1509,SBT4050,1,4,3.75878,3.9995,14033.258,21,
1509,SBT4050,1,4,3.88472,4.0004,14033.258,22,
1509,SBT4050,1,4,4.05665,3.9998,14033.258,22.1,
1509,SBT4050,1,4,4.19999,2.7087,14033.258,21.9,
1509,SBT4050,1,4,4.2001,1.1956,14033.258,21,
1509,SBT4050,1,4,4.20006,0.5085,14033.258,20.5,
1509,SBT4050,1,4,4.200122,0.23987,14033.258,20.4,
1509,SBT4050,1,4,4.20024,0.13236,14033.258,20.3,
1509,SBT4050,1,4,4.19136,0,14033.258,20.3,
1509,SBT4050,1,4,4.18477,0,14033.258,20.2,
1509,SBT4050,1,4,4.18204,0,14033.258,20.2,
1509,SBT4050,1,4,4.17968,0,14033.258,20.3,
1509,SBT4050,1,4,4.17791,0,14033.258,20.3,
1509,SBT4050,1,4,4.17639,0,14033.258,20.3,
1509,SBT4050,1,4,4.17548,0,14033.258,20.4,
1509,SBT4050,1,4,4.17476,0,14033.258,20.3,
1509,SBT4050,1,4,4.174024,0,14033.258,20.3,
1509,SBT4050,1,4,4.02615,-2.1416,14113.614,20.9,
1509,SBT4050,1,4,3.89061,1.1188,14607.869,22.1,
1509,SBT4050,1,4,3.75374,-1.9669,14968.418,22.1,
1509,SBT4050,1,4,3.80968,-1.6399,15107.921,21.3,
1509,SBT4050,1,4,3.83316,0.33396,15254.863,20.8,
1509,SBT4050,1,4,3.58029,-3.909,15593.319,21.8,
1509,SBT4050,1,4,3.56211,0.9401,16015.066,21.8,
1509,SBT4050,1,4,3.55036,0.35202,16309.691,21.3,
1509,SBT4050,1,4,3.5106,-0.9011,16504.566,21.5,
1509,SBT4050,1,4,3.55728,0.9789,16619.305,,
1509,SBT4050,1,4,3.73357,4.0001,16619.305,20.8,
1509,SBT4050,1,4,3.85549,3.9997,16619.305,21.9,
1509,SBT4050,1,4,4.02339,4,16619.305,22.2,
1509,SBT4050,1,4,4.20029,3.3406,16619.305,22.2,
1509,SBT4050,1,4,4.20022,1.4006,16619.305,21.2,
1509,SBT4050,1,4,4.2,0.5958,16619.305,20.6,
1509,SBT4050,1,4,4.20018,0.27782,16619.305,20.4,
1509,SBT4050,1,4,4.20008,0.14823,16619.305,20.4,
1509,SBT4050,1,4,4.19388,0,16619.305,20.3,
1509,SBT4050,1,4,4.1863,0,16619.305,20.3,
1509,SBT4050,1,4,4.182566,0,16619.305,20.3,
1509,SBT4050,1,4,4.180248,0,16619.305,20.3,
1509,SBT4050,1,4,4.17868,0,16619.305,20.3,
1509,SBT4050,1,4,4.17711,0,16619.305,20.3,
1509,SBT4050,1,4,4.1762,0,16619.305,20.4,
1509,SBT4050,1,4,4.17507,0,16619.305,20.4,
1509,SBT4050,1,4,4.17462,0,16619.305,20.4,
1509,SBT4050,1,4,4.17391,0,16619.305,20.4,
1509,SBT4050,1,4,3.75061,-9.516,16940.646,21.8,
1509,SBT4050,1,4,3.87184,-0.05199,17369.921,22,
1509,SBT4050,1,4,3.74987,3.9997,17896.195,22.9,
1509,SBT4050,1,4,3.61285,-0.074,18200.681,21.5,
1509,SBT4050,1,4,3.570226,0.523,18550.381,21.7,
1509,SBT4050,1,4,3.520196,-0.19199,18760.527,21.7,
1509,SBT4050,1,4,3.41309,-4.6936,18985.551,21.6,
1509,SBT4050,1,4,3.5381,-0.018998,19047.223,20.6,
1509,SBT4050,1,4,3.68904,3.9993,19047.433,20.5,
1509,SBT4050,1,4,3.83554,4,19047.433,21.8,
1509,SBT4050,1,4,3.99654,4,19047.433,22.2,
1509,SBT4050,1,4,4.19137,3.9997,19047.433,22.3,
1509,SBT4050,1,4,4.20015,1.5857,19047.433,21.4,
1509,SBT4050,1,4,4.20015,0.6769,19047.433,20.8,
1509,SBT4050,1,4,4.19983,0.30612,19047.433,20.6,
1509,SBT4050,1,4,4.20013,0.1619,19047.433,20.5,
1509,SBT4050,1,4,4.19537,0,19047.433,20.5,
1509,SBT4050,1,4,4.1871,0,19047.433,20.4,
1509,SBT4050,1,4,4.18315,0,19047.433,20.4,
1509,SBT4050,1,4,4.18035,0,19047.433,20.4,
1509,SBT4050,1,4,4.17836,0,19047.433,20.4,
1509,SBT4050,1,4,4.177184,0,19047.433,20.4,
1509,SBT4050,1,4,4.17602,0,19047.433,20.4,
1509,SBT4050,1,4,4.17502,0,19047.433,20.4,
1509,SBT4050,1,4,4.17443,0,19047.433,20.4,
1509,SBT4050,1,4,4.17387,0,19047.433,20.5,
1509,SBT4050,1,4,3.95713,0.6788,19393.766,22.3,
1509,SBT4050,1,4,3.87726,-0.7858,19715.569,21.8,
1509,SBT4050,1,4,3.8148,3.124,20135.231,22.2,
1509,SBT4050,1,4,3.45989,-6.509,20504.761,22.1,
1509,SBT4050,1,4,3.3124,-11.396,20856.319,21.6,
1509,SBT4050,1,4,3.57181,1.6471,21199.018,22,
1509,SBT4050,1,4,3.5339,-0.03599,21256.329,20.6,
1509,SBT4050,1,4,3.53879,0,21257.936,20.4,
1509,SBT4050,1,4,3.5396,-9.8E-05,21257.936,,