File: Dataset/AANDCNet/cell1/cycle_04/Test1507.csv
Test:,1507,,,,,,,
Start Time:,6/26/2021 9:22 PM,,,,,,,
End Time:,6/27/2021 12:02 AM,,,,,,,
Test,Rack,Shelf,Position,Voltage (V),Current (A),Discharge Capacity (mAh),TC_1 (C),
1507,SBT4050,1,4,3.55613,0,0,20.3,
1507,SBT4050,1,4,3.55606,0,0,20.3,
1507,SBT4050,1,4,3.6871,3.9997,0,20.4,
1507,SBT4050,1,4,3.72603,4.0005,0,20.5,
1507,SBT4050,1,4,3.74521,4.0005,0,20.7,
1507,SBT4050,1,4,3.75672,3.9995,0,20.9,
1507,SBT4050,1,4,3.7667,4.0001,0,21.1,
1507,SBT4050,1,4,3.77662,3.9998,0,21.3,
1507,SBT4050,1,4,3.78749,3.9997,0,21.4,
1507,SBT4050,1,4,3.79843,3.9995,0,21.5,
1507,SBT4050,1,4,3.80979,4.0003,0,21.6,
1507,SBT4050,1,4,3.82169,3.9998,0,21.8,
1507,SBT4050,1,4,3.8334,3.9997,0,21.9,
1507,SBT4050,1,4,3.84593,4,0,22,
1507,SBT4050,1,4,3.85861,4.0003,0,22,
1507,SBT4050,1,4,3.87214,4.0001,0,22.1,
1507,SBT4050,1,4,3.88708,3.9999,0,22.2,
1507,SBT4050,1,4,3.90233,4.0003,0,22.2,
1507,SBT4050,1,4,3.91804,4.0003,0,22.2,
1507,SBT4050,1,4,3.93459,4.0003,0,22.3,
1507,SBT4050,1,4,3.95132,4.0003,0,22.2,
1507,SBT4050,1,4,3.96823,4.0006,0,22.2,
1507,SBT4050,1,4,3.98514,4,0,22.3,
1507,SBT4050,1,4,4.00187,4,0,22.3,
1507,SBT4050,1,4,4.01855,3.9996,0,22.3,
1507,SBT4050,1,4,4.03498,3.9996,0,22.3,
1507,SBT4050,1,4,4.05154,3.9997,0,22.3,
1507,SBT4050,1,4,4.06854,3.9999,0,22.3,
1507,SBT4050,1,4,4.08576,3.9999,0,22.3,
1507,SBT4050,1,4,4.10422,3.9999,0,22.3,
1507,SBT4050,1,4,4.12401,3.9997,0,22.3,
1507,SBT4050,1,4,4.14541,4,0,22.4,
1507,SBT4050,1,4,4.16727,4.0002,0,22.3,
1507,SBT4050,1,4,4.19031,4.0002,0,22.4,
1507,SBT4050,1,4,4.20026,3.6187,0,22.4,
1507,SBT4050,1,4,4.20009,3.1989,0,22.3,
1507,SBT4050,1,4,4.19995,2.8838,0,22.2,
1507,SBT4050,1,4,4.20002,2.6344,0,22.1,
1507,SBT4050,1,4,4.20009,2.4246,0,22,
1507,SBT4050,1,4,4.20016,2.2473,0,21.8,
1507,SBT4050,1,4,4.19996,2.0867,0,21.8,
1507,SBT4050,1,4,4.19999,1.9372,0,21.7,
1507,SBT4050,1,4,4.20029,1.7963,0,21.5,
1507,SBT4050,1,4,4.20019,1.6633,0,21.5,
1507,SBT4050,1,4,4.20016,1.5364,0,21.4,
1507,SBT4050,1,4,4.200054,1.4158,0,21.3,
1507,SBT4050,1,4,4.20022,1.3025,0,21.2,
1507,SBT4050,1,4,4.20017,1.1967,0,21.2,
1507,SBT4050,1,4,4.19998,1.0959,0,21.1,
1507,SBT4050,1,4,4.20016,1.0056,0,21,
1507,SBT4050,1,4,4.200078,0.9226,0,21,
1507,SBT4050,1,4,4.19991,0.8479,0,21,
1507,SBT4050,1,4,4.2003,0.7752,0,20.9,
1507,SBT4050,1,4,4.20015,0.7126,0,20.9,
1507,SBT4050,1,4,4.20019,0.6523,0,20.8,
1507,SBT4050,1,4,4.19998,0.598,0,20.8,
1507,SBT4050,1,4,4.19996,0.5503,0,20.8,
1507,SBT4050,1,4,4.19984,0.5066,0,20.8,
1507,SBT4050,1,4,4.19988,0.46555,0,20.7,
1507,SBT4050,1,4,4.20019,0.42711,0,20.7,
1507,SBT4050,1,4,4.20015,0.3937,0,20.7,
1507,SBT4050,1,4,4.20015,0.36887,0,20.7,
1507,SBT4050,1,4,4.20028,0.33875,0,20.7,
1507,SBT4050,1,4,4.20011,0.31618,0,20.7,
1507,SBT4050,1,4,4.20028,0.29317,0,20.7,
1507,SBT4050,1,4,4.20029,0.27133,0,20.6,
1507,SBT4050,1,4,4.2002,0.25505,0,20.6,
1507,SBT4050,1,4,4.20009,0.23612,0,20.6,
1507,SBT4050,1,4,4.20015,0.22029,0,20.6,
1507,SBT4050,1,4,4.20027,0.20773,0,20.6,
1507,SBT4050,1,4,4.20023,0.19671,0,20.6,
1507,SBT4050,1,4,4.200078,0.18417,0,20.6,
1507,SBT4050,1,4,4.2003,0.17232,0,20.6,
1507,SBT4050,1,4,4.20004,0.16007,0,20.6,
1507,SBT4050,1,4,4.19996,0.14977,0,20.6,
1507,SBT4050,1,4,4.19998,0.14176,0,20.6,
1507,SBT4050,1,4,4.20022,0.13565,0,20.6,
1507,SBT4050,1,4,4.20009,0.12814,0,20.6,
1507,SBT4050,1,4,4.20027,0.12002,0,20.6,
1507,SBT4050,1,4,4.20015,0.11407,0,20.6,
1507,SBT4050,1,4,4.20013,0.10915,0,20.6,
1507,SBT4050,1,4,4.200054,0.10391,0,20.6,
1507,SBT4050,1,4,4.19755,0,0,20.6,
1507,SBT4050,1,4,4.19541,0,0,20.6,
1507,SBT4050,1,4,4.194028,0,0,20.6,
1507,SBT4050,1,4,4.19272,0,0,20.6,
1507,SBT4050,1,4,4.19206,0,0,20.6,
1507,SBT4050,1,4,4.19102,0,0,20.5,
1507,SBT4050,1,4,4.19065,0,0,20.6,
1507,SBT4050,1,4,4.189724,0,0,20.5,
1507,SBT4050,1,4,4.18934,0,0,20.5,
1507,SBT4050,1,4,4.18861,0,0,20.6,
1507,SBT4050,1,4,4.188166,0,0,20.6,
1507,SBT4050,1,4,4.18778,0,0,20.6,
1507,SBT4050,1,4,4.18689,0,0,20.6,
1507,SBT4050,1,4,4.18671,0,0,20.6,
1507,SBT4050,1,4,4.186226,0,0,20.5,
1507,SBT4050,1,4,4.18587,0,0,20.5,
1507,SBT4050,1,4,4.18542,0,0,20.5,
1507,SBT4050,1,4,4.18511,0,0,20.6,
1507,SBT4050,1,4,4.184942,0,0,20.6,
1507,SBT4050,1,4,4.18441,0,0,20.6,
1507,SBT4050,1,4,4.18385,0,0,20.6,
1507,SBT4050,1,4,4.183962,0,0,20.6,
1507,SBT4050,1,4,4.18324,0,0,20.6,
1507,SBT4050,1,4,4.18331,0,0,20.6,
1507,SBT4050,1,4,4.18328,0,0,20.6,
1507,SBT4050,1,4,4.18289,0,0,20.6,
1507,SBT4050,1,4,4.18254,0,0,20.5,
1507,SBT4050,1,4,4.18204,0,0,20.5,
1507,SBT4050,1,4,4.181972,0,0,20.6,
1507,SBT4050,1,4,4.18187,0,0,20.5,
1507,SBT4050,1,4,4.18149,0,0,20.5,
1507,SBT4050,1,4,4.18143,0,0,20.5,
1507,SBT4050,1,4,4.18109,0,0,20.5,
1507,SBT4050,1,4,4.18097,0,0,20.5,
1507,SBT4050,1,4,4.18065,0,0,20.5,
1507,SBT4050,1,4,4.18099,0,0,20.5,
1507,SBT4050,1,4,4.18048,0,0,20.5,
1507,SBT4050,1,4,4.18019,0,0,20.5,
1507,SBT4050,1,4,4.18004,0,0,20.5,
1507,SBT4050,1,4,4.179774,0,0,20.5,
1507,SBT4050,1,4,4.17968,0,0,20.5,
1507,SBT4050,1,4,4.17941,0,0,20.5,
1507,SBT4050,1,4,4.17972,0,0,20.5,
1507,SBT4050,1,4,4.17911,0,0,20.6,
1507,SBT4050,1,4,4.17917,0,0,20.5,
1507,SBT4050,1,4,4.17901,0,0,20.5,
1507,SBT4050,1,4,4.179122,0,0,20.5,
1507,SBT4050,1,4,4.179122,0,0,20.5,
1507,SBT4050,1,4,4.17868,0,0,20.5,
1507,SBT4050,1,4,4.17858,0,0,20.6,
1507,SBT4050,1,4,4.17839,0,0,20.6,
1507,SBT4050,1,4,4.17854,0,0,20.6,
1507,SBT4050,1,4,4.178244,0,0,20.5,
1507,SBT4050,1,4,4.17831,0,0,20.6,
1507,SBT4050,1,4,4.178156,0,0,20.6,
1507,SBT4050,1,4,4.17811,0,0,20.6,
1507,SBT4050,1,4,4.17778,0,0,20.5,
1507,SBT4050,1,4,4.17752,0,0,20.5,
1507,SBT4050,1,4,4.17773,0,0,20.5,
1507,SBT4050,1,4,4.17768,0,0,20.6,
1507,SBT4050,1,4,4.17719,0,0,20.5,
1507,SBT4050,1,4,4.177424,0,0,20.6,
1507,SBT4050,1,4,4.1773,0,0,20.6,
1507,SBT4050,1,4,4.177158,0,0,20.6,
1507,SBT4050,1,4,4.17726,0,0,20.5,
1507,SBT4050,1,4,4.17712,0,0,20.6,
1507,SBT4050,1,4,4.17707,0,0,20.6,
1507,SBT4050,1,4,4.17673,0,0,20.6,
1507,SBT4050,1,4,4.17668,0,0,20.6,
1507,SBT4050,1,4,4.17681,0,0,20.6,
1507,SBT4050,1,4,4.1768,0,0,20.6,
1507,SBT4050,1,4,4.17633,0,0,20.6,
1507,SBT4050,1,4,4.17654,0,0,20.6,
1507,SBT4050,1,4,4.17632,0,0,20.6,
1507,SBT4050,1,4,4.176268,0,0,20.6,
1507,SBT4050,1,4,4.17629,0,0,20.6,
1507,SBT4050,1,4,4.176496,0,0,20.6,
1507,SBT4050,1,4,4.1761,0,0,20.6,
1507,SBT4050,1,4,4.17633,0,0,20.6,
1507,SBT4050,1,4,4.17589,0,0,20.6,
1507,SBT4050,1,4,4.17606,0,0,20.7,
1507,SBT4050,1,4,4.17589,0,0,20.6,
1507,SBT4050,1,4,4.17584,0,0,20.6,
1507,SBT4050,1,4,4.17579,0,0,20.6,
1507,SBT4050,1,4,4.17575,0,0,20.7,
1507,SBT4050,1,4,4.17551,0,0,20.6,
1507,SBT4050,1,4,4.17553,0,0,20.7,
1507,SBT4050,1,4,4.17547,0,0,20.7,
1507,SBT4050,1,4,4.17555,0,0,20.7,
1507,SBT4050,1,4,4.17555,0,0,20.7,
1507,SBT4050,1,4,4.17543,0,0,20.7,
1507,SBT4050,1,4,4.175296,0,0,20.7,
1507,SBT4050,1,4,4.175004,0,0,20.7,
1507,SBT4050,1,4,4.17502,0,0,20.7,
1507,SBT4050,1,4,4.175062,0,0,20.6,
1507,SBT4050,1,4,3.85604,-10,38.967,20.7,
1507,SBT4050,1,4,3.761792,-9.999,144.516,21.8,
1507,SBT4050,1,4,3.718722,-9.999,250.064,22.8,
1507,SBT4050,1,4,3.68376,-10.001,355.614,23.6,
1507,SBT4050,1,4,3.64863,-10,461.167,24.4,
1507,SBT4050,1,4,3.61269,-9.999,566.718,25,
1507,SBT4050,1,4,3.57563,-10,672.267,25.5,
1507,SBT4050,1,4,3.53804,-9.999,777.816,25.8,
1507,SBT4050,1,4,3.49952,-9.998,883.365,26.2,
1507,SBT4050,1,4,3.46,-10,988.915,26.5,
1507,SBT4050,1,4,3.421068,-10,1094.464,26.7,
1507,SBT4050,1,4,3.38364,-10,1200.015,26.9,
1507,SBT4050,1,4,3.34684,-10,1305.566,27.2,
1507,SBT4050,1,4,3.312428,-10,1411.118,27.3,
1507,SBT4050,1,4,3.27745,-10.001,1516.668,27.4,
1507,SBT4050,1,4,3.24256,-9.999,1622.219,27.6,
1507,SBT4050,1,4,3.20567,-9.999,1727.768,27.8,
1507,SBT4050,1,4,3.16567,-9.999,1833.317,28.1,
1507,SBT4050,1,4,3.11882,-10,1938.869,28.4,
1507,SBT4050,1,4,3.05873,-10.001,2044.419,28.7,
1507,SBT4050,1,4,2.96934,-9.998,2149.971,29,
1507,SBT4050,1,4,2.81277,-10,2255.523,29.6,
1507,SBT4050,1,4,2.90307,0,2351.886,30.2,
1507,SBT4050,1,4,3.06061,0,2351.886,29.3,
1507,SBT4050,1,4,3.08317,0,2351.886,27.8,
1507,SBT4050,1,4,3.09357,0,2351.886,26.5,
1507,SBT4050,1,4,3.09995,0,2351.886,25.4,
1507,SBT4050,1,4,3.10435,0,2351.886,24.5,
1507,SBT4050,1,4,3.10759,0,2351.886,23.9,
1507,SBT4050,1,4,3.11089,0,2351.886,23.3,
1507,SBT4050,1,4,3.11308,0,2351.886,22.8,
1507,SBT4050,1,4,3.114901,0,2351.886,22.5,
1507,SBT4050,1,4,3.116857,0,2351.886,22.2,
1507,SBT4050,1,4,3.11849,0,2351.886,21.9,
1507,SBT4050,1,4,3.11995,0,2351.886,21.8,
1507,SBT4050,1,4,3.12109,0,2351.886,21.6,
1507,SBT4050,1,4,3.12267,0,2351.886,21.5,
1507,SBT4050,1,4,3.12385,0,2351.886,21.4,
1507,SBT4050,1,4,3.124978,0,2351.886,21.4,
1507,SBT4050,1,4,3.12553,0,2351.886,21.3,
1507,SBT4050,1,4,3.12687,0,2351.886,21.2,
1507,SBT4050,1,4,3.127726,0,2351.886,21.2,
1507,SBT4050,1,4,3.12842,0,2351.886,21.2,
1507,SBT4050,1,4,3.129316,0,2351.886,21.2,
1507,SBT4050,1,4,3.13059,0,2351.886,21.1,
1507,SBT4050,1,4,3.131322,0,2351.886,21.1,
1507,SBT4050,1,4,3.36352,3.9998,2351.886,21.1,
1507,SBT4050,1,4,3.497454,4.0003,2351.886,21.2,
1507,SBT4050,1,4,3.56053,4.0003,2351.886,21.4,
1507,SBT4050,1,4,3.58709,3.9999,2351.886,21.7,
1507,SBT4050,1,4,3.604022,3.9997,2351.886,21.9,
1507,SBT4050,1,4,3.62079,4.0003,2351.886,22.1,
1507,SBT4050,1,4,3.63664,3.9998,2351.886,22.3,
1507,SBT4050,1,4,3.65212,4.0002,2351.886,22.5,
1507,SBT4050,1,4,3.66735,4.0005,2351.886,22.6,
1507,SBT4050,1,4,3.68231,4,2351.886,22.7,
1507,SBT4050,1,4,3.69772,3.9993,2351.886,22.7,
1507,SBT4050,1,4,3.71197,4.0002,2351.886,22.8,
1507,SBT4050,1,4,3.724252,4.0002,2351.886,22.9,
1507,SBT4050,1,4,3.73406,3.9999,2351.886,22.9,
1507,SBT4050,1,4,3.74351,3.9999,2351.886,22.9,
1507,SBT4050,1,4,3.75267,4,2351.886,23,
1507,SBT4050,1,4,3.76246,4,2351.886,23,
1507,SBT4050,1,4,3.7725,4.0004,2351.886,23,
1507,SBT4050,1,4,3.782842,4.0003,2351.886,23.1,
1507,SBT4050,1,4,3.79334,3.9991,2351.886,23.2,
1507,SBT4050,1,4,3.80369,4.0001,2351.886,23.2,
1507,SBT4050,1,4,3.81417,4.0007,2351.886,23.2,
1507,SBT4050,1,4,3.82469,4,2351.886,23.2,
1507,SBT4050,1,4,3.83661,4,2351.886,23.3,
1507,SBT4050,1,4,3.84803,3.9998,2351.886,23.3,
1507,SBT4050,1,4,3.86133,3.9997,2351.886,23.3,
1507,SBT4050,1,4,3.874984,4,2351.886,23.4,
1507,SBT4050,1,4,3.88967,4.0003,2351.886,23.4,
1507,SBT4050,1,4,3.90506,3.9995,2351.886,23.5,
1507,SBT4050,1,4,3.92133,4.0001,2351.886,23.5,
1507,SBT4050,1,4,3.92898,4,2351.886,,