File: Dataset/AANDCNet/cell2/cycle_28/Test1573.csv
Test:,1573,,,,,,,
Start Time:,8/9/2021 9:39 PM,,,,,,,
End Time:,8/10/2021 9:56 PM,,,,,,,
Test,Rack,Shelf,Position,Voltage (V),Current (A),Discharge Capacity (mAh),TC_1 (C),
1573,SBT4050,1,5,2.75178,0,0,20,
1573,SBT4050,1,5,3.68931,4.0004,0,21.9,
1573,SBT4050,1,5,3.81825,4,0,22.1,
1573,SBT4050,1,5,3.96217,3.9996,0,22.6,
1573,SBT4050,1,5,4.12023,4.0002,0,22.8,
1573,SBT4050,1,5,4.20032,2.2334,0,22.3,
1573,SBT4050,1,5,4.20009,1.1029,0,21.1,
1573,SBT4050,1,5,4.20012,0.6425,0,20.6,
1573,SBT4050,1,5,4.20023,0.41242,0,20.4,
1573,SBT4050,1,5,4.20006,0.28716,0,20.3,
1573,SBT4050,1,5,4.199862,0.20804,0,20.2,
1573,SBT4050,1,5,4.20015,0.1589,0,20.2,
1573,SBT4050,1,5,4.19981,0.12559,0,20.2,
1573,SBT4050,1,5,4.20001,0.10266,0,20.3,
1573,SBT4050,1,5,4.18405,0,0,20.3,
1573,SBT4050,1,5,4.176944,0,0,20.3,
1573,SBT4050,1,5,4.17154,0,0,20.3,
1573,SBT4050,1,5,4.16728,0,0,20.3,
1573,SBT4050,1,5,4.164,0,0,20.3,
1573,SBT4050,1,5,4.16118,0,0,20.3,
1573,SBT4050,1,5,4.15877,0,0,20.3,
1573,SBT4050,1,5,4.15649,0,0,20.3,
1573,SBT4050,1,5,4.15497,0,0,20.3,
1573,SBT4050,1,5,4.153374,0,0,20.3,
1573,SBT4050,1,5,3.39788,-9.999,788.008,27.6,
1573,SBT4050,1,5,3.01807,-10.001,1776.845,30.2,
1573,SBT4050,1,5,3.16027,0,2124.109,24,
1573,SBT4050,1,5,3.176546,0,2124.109,20.8,
1573,SBT4050,1,5,3.5567,3.9999,2124.109,20.4,
1573,SBT4050,1,5,3.752552,3.9998,2124.109,22,
1573,SBT4050,1,5,3.87642,3.9993,2124.109,22.3,
1573,SBT4050,1,5,4.03817,4.0003,2124.109,22.7,
1573,SBT4050,1,5,4.200252,3.458,2124.109,22.9,
1573,SBT4050,1,5,4.19993,1.4401,2124.109,21.5,
1573,SBT4050,1,5,4.199966,0.7772,2124.109,20.7,
1573,SBT4050,1,5,4.199966,0.475,2124.109,20.4,
1573,SBT4050,1,5,4.19981,0.317,2124.109,20.3,
1573,SBT4050,1,5,4.19985,0.22597,2124.109,20.3,
1573,SBT4050,1,5,4.20012,0.16788,2124.109,20.2,
1573,SBT4050,1,5,4.20009,0.1297,2124.109,20.2,
1573,SBT4050,1,5,4.200252,0.10585,2124.109,20.2,
1573,SBT4050,1,5,4.18559,0,2124.109,20.2,
1573,SBT4050,1,5,4.17794,0,2124.109,20.2,
1573,SBT4050,1,5,4.1725,0,2124.109,20.2,
1573,SBT4050,1,5,4.16838,0,2124.109,20.2,
1573,SBT4050,1,5,4.16482,0,2124.109,20.3,
1573,SBT4050,1,5,4.16219,0,2124.109,20.3,
1573,SBT4050,1,5,4.15939,0,2124.109,20.3,
1573,SBT4050,1,5,4.15715,0,2124.109,20.3,
1573,SBT4050,1,5,4.155394,0,2124.109,20.3,
1573,SBT4050,1,5,4.15335,0,2124.109,20.3,
1573,SBT4050,1,5,3.27109,-15.001,3020.669,32.8,
1573,SBT4050,1,5,3.15558,0,4238.458,35.1,
1573,SBT4050,1,5,3.19544,0,4238.458,22.3,
1573,SBT4050,1,5,3.203991,0,4238.458,20.6,
1573,SBT4050,1,5,3.69121,4.0001,4238.458,21.7,
1573,SBT4050,1,5,3.81481,4,4238.458,22.2,
1573,SBT4050,1,5,3.96464,3.9997,4238.458,22.7,
1573,SBT4050,1,5,4.13319,3.9998,4238.458,23,
1573,SBT4050,1,5,4.19999,2.0207,4238.458,22.3,
1573,SBT4050,1,5,4.20016,1.0016,4238.458,21.1,
1573,SBT4050,1,5,4.20019,0.5826,4238.458,20.7,
1573,SBT4050,1,5,4.19999,0.3759,4238.458,20.5,
1573,SBT4050,1,5,4.20005,0.25892,4238.458,20.4,
1573,SBT4050,1,5,4.2002,0.19092,4238.458,20.4,
1573,SBT4050,1,5,4.20011,0.14584,4238.458,20.4,
1573,SBT4050,1,5,4.20003,0.11547,4238.458,20.3,
1573,SBT4050,1,5,4.19109,0,4238.458,20.4,
1573,SBT4050,1,5,4.181244,0,4238.458,20.3,
1573,SBT4050,1,5,4.1751,0,4238.458,20.3,
1573,SBT4050,1,5,4.17024,0,4238.458,20.3,
1573,SBT4050,1,5,4.16655,0,4238.458,20.3,
1573,SBT4050,1,5,4.16312,0,4238.458,20.3,
1573,SBT4050,1,5,4.16053,0,4238.458,20.3,
1573,SBT4050,1,5,4.15851,0,4238.458,20.3,
1573,SBT4050,1,5,4.15635,0,4238.458,20.3,
1573,SBT4050,1,5,4.15471,0,4238.458,20.4,
1573,SBT4050,1,5,3.55203,-12.499,4412.42,22.7,
1573,SBT4050,1,5,3.16261,-12.5,5648.478,32.2,
1573,SBT4050,1,5,3.16533,0,6351.832,27.8,
1573,SBT4050,1,5,3.187764,0,6351.832,21.3,
1573,SBT4050,1,5,3.1959,0,6351.832,20.5,
1573,SBT4050,1,5,3.725064,4,6351.832,22,
1573,SBT4050,1,5,3.84873,4.0001,6351.832,22.3,
1573,SBT4050,1,5,4.00583,3.9998,6351.832,22.8,
1573,SBT4050,1,5,4.18276,3.9998,6351.832,23.1,
1573,SBT4050,1,5,4.20003,1.6472,6351.832,21.9,
1573,SBT4050,1,5,4.20017,0.8585,6351.832,21,
1573,SBT4050,1,5,4.2,0.5151,6351.832,20.6,
1573,SBT4050,1,5,4.20006,0.33919,6351.832,20.5,
1573,SBT4050,1,5,4.20006,0.23853,6351.832,20.4,
1573,SBT4050,1,5,4.20006,0.17728,6351.832,20.4,
1573,SBT4050,1,5,4.20021,0.13743,6351.832,20.4,
1573,SBT4050,1,5,4.20008,0.11048,6351.832,20.4,
1573,SBT4050,1,5,4.186914,0,6351.832,20.4,
1573,SBT4050,1,5,4.17867,0,6351.832,20.4,
1573,SBT4050,1,5,4.17326,0,6351.832,20.4,
1573,SBT4050,1,5,4.16866,0,6351.832,20.4,
1573,SBT4050,1,5,4.16515,0,6351.832,20.4,
1573,SBT4050,1,5,4.16204,0,6351.832,20.4,
1573,SBT4050,1,5,4.15943,0,6351.832,20.4,
1573,SBT4050,1,5,4.15715,0,6351.832,20.4,
1573,SBT4050,1,5,4.15533,0,6351.832,20.4,
1573,SBT4050,1,5,4.153564,0,6351.832,20.4,
1573,SBT4050,1,5,3.626362,-7.501,6680.488,23.4,
1573,SBT4050,1,5,3.37029,-7.499,7422.103,25.9,
1573,SBT4050,1,5,3.02716,-7.499,8163.72,27.4,
1573,SBT4050,1,5,3.14205,0,8469.053,23.5,
1573,SBT4050,1,5,3.69347,4.0001,8469.053,22,
1573,SBT4050,1,5,3.82121,4,8469.053,22.2,
1573,SBT4050,1,5,3.97472,4,8469.053,22.6,
1573,SBT4050,1,5,4.14779,4.0004,8469.053,22.9,
1573,SBT4050,1,5,4.20039,1.8809,8469.053,22.1,
1573,SBT4050,1,5,4.20016,0.9461,8469.053,21,
1573,SBT4050,1,5,4.20011,0.5583,8469.053,20.7,
1573,SBT4050,1,5,4.20015,0.36175,8469.053,20.5,
1573,SBT4050,1,5,4.20005,0.25214,8469.053,20.5,
1573,SBT4050,1,5,4.20003,0.18604,8469.053,20.5,
1573,SBT4050,1,5,4.20013,0.14309,8469.053,20.5,
1573,SBT4050,1,5,4.199932,0.11348,8469.053,20.5,
1573,SBT4050,1,5,4.1892,0,8469.053,20.4,
1573,SBT4050,1,5,4.18026,0,8469.053,20.4,
1573,SBT4050,1,5,4.17422,0,8469.053,20.5,
1573,SBT4050,1,5,4.16998,0,8469.053,20.4,
1573,SBT4050,1,5,4.16575,0,8469.053,20.3,
1573,SBT4050,1,5,4.1628,0,8469.053,20.3,
1573,SBT4050,1,5,4.16036,0,8469.053,20.3,
1573,SBT4050,1,5,4.15789,0,8469.053,20.3,
1573,SBT4050,1,5,4.15618,0,8469.053,20.4,
1573,SBT4050,1,5,4.15415,0,8469.053,20.4,
1573,SBT4050,1,5,3.81243,-4.999,8605.076,21.3,
1573,SBT4050,1,5,3.59287,-4.999,9099.47,23.2,
1573,SBT4050,1,5,3.424636,-5,9593.861,23.4,
1573,SBT4050,1,5,3.23866,-4.999,10088.249,23.8,
1573,SBT4050,1,5,2.55294,-5,10582.638,26.7,
1573,SBT4050,1,5,3.52443,4.0001,10596.234,21.4,
1573,SBT4050,1,5,3.74685,4.0003,10596.234,22.1,
1573,SBT4050,1,5,3.87508,3.9998,10596.234,22,
1573,SBT4050,1,5,4.03935,4,10596.234,22.2,
1573,SBT4050,1,5,4.200116,3.3773,10596.234,22,
1573,SBT4050,1,5,4.20002,1.3965,10596.234,20.4,
1573,SBT4050,1,5,4.200104,0.764,10596.234,19.5,
1573,SBT4050,1,5,4.200104,0.475,10596.234,19.2,
1573,SBT4050,1,5,4.200128,0.32102,10596.234,19.3,
1573,SBT4050,1,5,4.20014,0.2323,10596.234,19.4,
1573,SBT4050,1,5,4.20007,0.17739,10596.234,19.5,
1573,SBT4050,1,5,4.20002,0.13801,10596.234,19.5,
1573,SBT4050,1,5,4.19989,0.11189,10596.234,19.5,
1573,SBT4050,1,5,4.187938,0,10596.234,19.5,
1573,SBT4050,1,5,4.17914,0,10596.234,19.6,
1573,SBT4050,1,5,4.17346,0,10596.234,19.6,
1573,SBT4050,1,5,4.16864,0,10596.234,19.6,
1573,SBT4050,1,5,4.16468,0,10596.234,19.5,
1573,SBT4050,1,5,4.16177,0,10596.234,19.6,
1573,SBT4050,1,5,4.159068,0,10596.234,19.6,
1573,SBT4050,1,5,4.15691,0,10596.234,19.6,
1573,SBT4050,1,5,4.15497,0,10596.234,19.5,
1573,SBT4050,1,5,4.153124,0,10596.234,19.5,
1573,SBT4050,1,5,3.94499,-2.5,10680.059,19.7,
1573,SBT4050,1,5,3.80778,-2.4998,10927.276,20.4,
1573,SBT4050,1,5,3.70884,-2.5,11174.493,20.5,
1573,SBT4050,1,5,3.61768,-2.5001,11421.711,20.5,
1573,SBT4050,1,5,3.5365,-2.4998,11668.928,20.4,
1573,SBT4050,1,5,3.46543,-2.4996,11916.145,20.4,
1573,SBT4050,1,5,3.380604,-2.5002,12163.363,20.7,
1573,SBT4050,1,5,3.22765,-2.5001,12410.58,21.1,
1573,SBT4050,1,5,2.81201,-2.4997,12657.796,22.1,
1573,SBT4050,1,5,3.03791,0,12739.844,20.6,
1573,SBT4050,1,5,3.699586,4.0002,12739.844,21.4,
1573,SBT4050,1,5,3.82819,4.0003,12739.844,21.7,
1573,SBT4050,1,5,3.98065,3.9998,12739.844,22.1,
1573,SBT4050,1,5,4.1526,3.9995,12739.844,22.3,
1573,SBT4050,1,5,4.200092,1.8591,12739.844,21.5,
1573,SBT4050,1,5,4.20013,0.9483,12739.844,20.5,
1573,SBT4050,1,5,4.20015,0.5639,12739.844,20.2,
1573,SBT4050,1,5,4.200402,0.36472,12739.844,19.9,
1573,SBT4050,1,5,4.20004,0.25522,12739.844,19.9,
1573,SBT4050,1,5,4.2,0.19005,12739.844,19.8,
1573,SBT4050,1,5,4.20003,0.14399,12739.844,19.8,
1573,SBT4050,1,5,4.19989,0.11654,12739.844,19.7,
1573,SBT4050,1,5,4.18974,0,12739.844,19.7,
1573,SBT4050,1,5,4.1801,0,12739.844,19.7,
1573,SBT4050,1,5,4.17402,0,12739.844,19.7,
1573,SBT4050,1,5,4.16914,0,12739.844,19.7,
1573,SBT4050,1,5,4.16532,0,12739.844,19.8,
1573,SBT4050,1,5,4.16231,0,12739.844,19.8,
1573,SBT4050,1,5,4.15949,0,12739.844,19.8,
1573,SBT4050,1,5,4.15741,0,12739.844,19.8,
1573,SBT4050,1,5,4.15527,0,12739.844,19.7,
1573,SBT4050,1,5,4.15341,0,12739.844,19.4,
1573,SBT4050,1,5,3.871244,-5.002,12800.024,19.7,
1573,SBT4050,1,5,3.96179,4.0002,13191.783,21.8,
1573,SBT4050,1,5,3.47096,-9.25,13520.501,21.5,
1573,SBT4050,1,5,3.44525,-4.4201,13942.266,21.7,
1573,SBT4050,1,5,3.55708,0.483,14256.593,21.7,
1573,SBT4050,1,5,3.47657,-0.046,14594.197,22.7,
1573,SBT4050,1,5,3.52974,0.39402,14791.304,21.2,
1573,SBT4050,1,5,3.46071,-0.227,14950.12,21,
1573,SBT4050,1,5,3.471734,-0.034995,15010.891,20.3,
1573,SBT4050,1,5,3.470562,-0.042003,15014.85,20,
1573,SBT4050,1,5,3.47386,0,15016.93,20,
1573,SBT4050,1,5,3.7623,3.9994,15016.93,20.9,
1573,SBT4050,1,5,3.90022,3.9999,15016.93,21.7,
1573,SBT4050,1,5,4.07492,3.9996,15016.93,22.2,
1573,SBT4050,1,5,4.2003,2.6611,15016.93,22.1,
1573,SBT4050,1,5,4.20019,1.1967,15016.93,20.8,
1573,SBT4050,1,5,4.20011,0.6735,15016.93,20.2,
1573,SBT4050,1,5,4.20014,0.42739,15016.93,20,
1573,SBT4050,1,5,4.19995,0.29263,15016.93,20,
1573,SBT4050,1,5,4.200054,0.2113,15016.93,19.9,
1573,SBT4050,1,5,4.19999,0.16085,15016.93,19.9,
1573,SBT4050,1,5,4.200042,0.12695,15016.93,19.9,
1573,SBT4050,1,5,4.20002,0.10317,15016.93,19.9,
1573,SBT4050,1,5,4.183788,0,15016.93,19.9,
1573,SBT4050,1,5,4.176326,0,15016.93,20,
1573,SBT4050,1,5,4.17125,0,15016.93,20,
1573,SBT4050,1,5,4.167,0,15016.93,20,
1573,SBT4050,1,5,4.16333,0,15016.93,20.1,
1573,SBT4050,1,5,4.159474,0,15016.93,20.3,
1573,SBT4050,1,5,4.15802,0,15016.93,20.3,
1573,SBT4050,1,5,4.15563,0,15016.93,20.4,
1573,SBT4050,1,5,4.15357,0,15016.93,20.5,
1573,SBT4050,1,5,4.15186,0,15016.93,20.5,
1573,SBT4050,1,5,3.80055,-3.8517,15304.041,22.6,
1573,SBT4050,1,5,3.56833,-9.523,15684.524,23,
1573,SBT4050,1,5,3.91839,1E-06,15705.942,,